Wavelength: 640 nm
Delay	   Data
 0.000    0.00000
 0.001    1.00000
 0.002    3.00000
 0.002    0.00000
 0.003    1.00000
 0.004    2.00000
 0.005    0.00000
 0.006    1.00000
 0.007    1.00000
 0.007    1.00000
 0.008    1.00000
 0.009    1.00000
 0.010    0.00000
 0.011    1.00000
 0.011    2.00000
 0.012    2.00000
 0.013    1.00000
 0.014    3.00000
 0.015    0.00000
 0.015    1.00000
 0.016    1.00000
 0.017    3.00000
 0.018    1.00000
 0.019    3.00000
 0.020    0.00000
 0.020    2.00000
 0.021    1.00000
 0.022    0.00000
 0.023    1.00000
 0.024    1.00000
 0.024    3.00000
 0.025    4.00000
 0.026    2.00000
 0.027    1.00000
 0.028    1.00000
 0.029    1.00000
 0.029    3.00000
 0.030    0.00000
 0.031    1.00000
 0.032    2.00000
 0.033    0.00000
 0.033    0.00000
 0.034    1.00000
 0.035    1.00000
 0.036    1.00000
 0.037    4.00000
 0.037    0.00000
 0.038    4.00000
 0.039    0.00000
 0.040    2.00000
 0.041    2.00000
 0.042    1.00000
 0.042    0.00000
 0.043    0.00000
 0.044    0.00000
 0.045    0.00000
 0.046    0.00000
 0.046    1.00000
 0.047    2.00000
 0.048    0.00000
 0.049    0.00000
 0.050    1.00000
 0.051    2.00000
 0.051    3.00000
 0.052    0.00000
 0.053    0.00000
 0.054    3.00000
 0.055    0.00000
 0.055    1.00000
 0.056    1.00000
 0.057    2.00000
 0.058    1.00000
 0.059    3.00000
 0.059    1.00000
 0.060    1.00000
 0.061    2.00000
 0.062    2.00000
 0.063    2.00000
 0.064    0.00000
 0.064    1.00000
 0.065    1.00000
 0.066    1.00000
 0.067    1.00000
 0.068    0.00000
 0.068    0.00000
 0.069    2.00000
 0.070    2.00000
 0.071    2.00000
 0.072    1.00000
 0.073    2.00000
 0.073    3.00000
 0.074    0.00000
 0.075    3.00000
 0.076    1.00000
 0.077    1.00000
 0.077    2.00000
 0.078    1.00000
 0.079    0.00000
 0.080    2.00000
 0.081    3.00000
 0.081    1.00000
 0.082    1.00000
 0.083    2.00000
 0.084    2.00000
 0.085    2.00000
 0.086    1.00000
 0.086    1.00000
 0.087    3.00000
 0.088    2.00000
 0.089    0.00000
 0.090    0.00000
 0.090    0.00000
 0.091    1.00000
 0.092    4.00000
 0.093    1.00000
 0.094    2.00000
 0.095    3.00000
 0.095    3.00000
 0.096    2.00000
 0.097    1.00000
 0.098    0.00000
 0.099    3.00000
 0.099    1.00000
 0.100    0.00000
 0.101    1.00000
 0.102    1.00000
 0.103    3.00000
 0.103    3.00000
 0.104    2.00000
 0.105    2.00000
 0.106    3.00000
 0.107    1.00000
 0.108    1.00000
 0.108    2.00000
 0.109    2.00000
 0.110    1.00000
 0.111    2.00000
 0.112    1.00000
 0.112    1.00000
 0.113    0.00000
 0.114    1.00000
 0.115    0.00000
 0.116    0.00000
 0.117    0.00000
 0.117    1.00000
 0.118    2.00000
 0.119    1.00000
 0.120    2.00000
 0.121    2.00000
 0.121    0.00000
 0.122    3.00000
 0.123    0.00000
 0.124    0.00000
 0.125    1.00000
 0.125    0.00000
 0.126    0.00000
 0.127    3.00000
 0.128    2.00000
 0.129    0.00000
 0.130    1.00000
 0.130    1.00000
 0.131    5.00000
 0.132    1.00000
 0.133    0.00000
 0.134    1.00000
 0.134    2.00000
 0.135    1.00000
 0.136    1.00000
 0.137    1.00000
 0.138    1.00000
 0.139    1.00000
 0.139    1.00000
 0.140    0.00000
 0.141    1.00000
 0.142    0.00000
 0.143    0.00000
 0.143    0.00000
 0.144    1.00000
 0.145    0.00000
 0.146    1.00000
 0.147    1.00000
 0.147    1.00000
 0.148    0.00000
 0.149    1.00000
 0.150    1.00000
 0.151    1.00000
 0.152    1.00000
 0.152    1.00000
 0.153    0.00000
 0.154    0.00000
 0.155    2.00000
 0.156    2.00000
 0.156    0.00000
 0.157    3.00000
 0.158    2.00000
 0.159    1.00000
 0.160    0.00000
 0.161    1.00000
 0.161    1.00000
 0.162    1.00000
 0.163    4.00000
 0.164    0.00000
 0.165    0.00000
 0.165    1.00000
 0.166    1.00000
 0.167    0.00000
 0.168    1.00000
 0.169    0.00000
 0.169    1.00000
 0.170    0.00000
 0.171    1.00000
 0.172    1.00000
 0.173    0.00000
 0.174    1.00000
 0.174    1.00000
 0.175    2.00000
 0.176    1.00000
 0.177    0.00000
 0.178    1.00000
 0.178    1.00000
 0.179    1.00000
 0.180    2.00000
 0.181    0.00000
 0.182    3.00000
 0.182    0.00000
 0.183    1.00000
 0.184    1.00000
 0.185    0.00000
 0.186    1.00000
 0.187    0.00000
 0.187    2.00000
 0.188    1.00000
 0.189    0.00000
 0.190    1.00000
 0.191    0.00000
 0.191    1.00000
 0.192    2.00000
 0.193    0.00000
 0.194    1.00000
 0.195    1.00000
 0.196    0.00000
 0.196    2.00000
 0.197    1.00000
 0.198    2.00000
 0.199    0.00000
 0.200    2.00000
 0.200    3.00000
 0.201    2.00000
 0.202    4.00000
 0.203    0.00000
 0.204    2.00000
 0.204    1.00000
 0.205    1.00000
 0.206    2.00000
 0.207    2.00000
 0.208    1.00000
 0.209    0.00000
 0.209    2.00000
 0.210    0.00000
 0.211    1.00000
 0.212    3.00000
 0.213    1.00000
 0.213    0.00000
 0.214    3.00000
 0.215    1.00000
 0.216    5.00000
 0.217    0.00000
 0.218    2.00000
 0.218    4.00000
 0.219    1.00000
 0.220    2.00000
 0.221    1.00000
 0.222    1.00000
 0.222    2.00000
 0.223    4.00000
 0.224    1.00000
 0.225    3.00000
 0.226    0.00000
 0.226    1.00000
 0.227    0.00000
 0.228    0.00000
 0.229    2.00000
 0.230    2.00000
 0.231    5.00000
 0.231    1.00000
 0.232    0.00000
 0.233    1.00000
 0.234    2.00000
 0.235    2.00000
 0.235    0.00000
 0.236    3.00000
 0.237    1.00000
 0.238    0.00000
 0.239    1.00000
 0.240    3.00000
 0.240    1.00000
 0.241    2.00000
 0.242    1.00000
 0.243    1.00000
 0.244    1.00000
 0.244    1.00000
 0.245    1.00000
 0.246    2.00000
 0.247    1.00000
 0.248    0.00000
 0.248    2.00000
 0.249    1.00000
 0.250    4.00000
 0.251    0.00000
 0.252    0.00000
 0.253    0.00000
 0.253    1.00000
 0.254    2.00000
 0.255    3.00000
 0.256    2.00000
 0.257    1.00000
 0.257    2.00000
 0.258    1.00000
 0.259    1.00000
 0.260    2.00000
 0.261    0.00000
 0.262    2.00000
 0.262    2.00000
 0.263    1.00000
 0.264    5.00000
 0.265    1.00000
 0.266    2.00000
 0.266    3.00000
 0.267    2.00000
 0.268    1.00000
 0.269    1.00000
 0.270    1.00000
 0.270    1.00000
 0.271    1.00000
 0.272    2.00000
 0.273    1.00000
 0.274    5.00000
 0.275    0.00000
 0.275    2.00000
 0.276    3.00000
 0.277    2.00000
 0.278    6.00000
 0.279    2.00000
 0.279    3.00000
 0.280    3.00000
 0.281    2.00000
 0.282    4.00000
 0.283    1.00000
 0.284    3.00000
 0.284    1.00000
 0.285    3.00000
 0.286    3.00000
 0.287    3.00000
 0.288    1.00000
 0.288    0.00000
 0.289    2.00000
 0.290    0.00000
 0.291    4.00000
 0.292    2.00000
 0.292    2.00000
 0.293    4.00000
 0.294    1.00000
 0.295    2.00000
 0.296    4.00000
 0.297    1.00000
 0.297    2.00000
 0.298    3.00000
 0.299    2.00000
 0.300    4.00000
 0.301    1.00000
 0.301    1.00000
 0.302    1.00000
 0.303    0.00000
 0.304    2.00000
 0.305    2.00000
 0.306    2.00000
 0.306    3.00000
 0.307    3.00000
 0.308    2.00000
 0.309    2.00000
 0.310    5.00000
 0.310    2.00000
 0.311    5.00000
 0.312    2.00000
 0.313    4.00000
 0.314    4.00000
 0.314    7.00000
 0.315    7.00000
 0.316    4.00000
 0.317    8.00000
 0.318    7.00000
 0.319    5.00000
 0.319    6.00000
 0.320    2.00000
 0.321    4.00000
 0.322    7.00000
 0.323    12.00000
 0.323    12.00000
 0.324    12.00000
 0.325    14.00000
 0.326    9.00000
 0.327    12.00000
 0.328    19.00000
 0.328    29.00000
 0.329    21.00000
 0.330    19.00000
 0.331    27.00000
 0.332    38.00000
 0.332    36.00000
 0.333    41.00000
 0.334    39.00000
 0.335    58.00000
 0.336    53.00000
 0.336    71.00000
 0.337    64.00000
 0.338    83.00000
 0.339    71.00000
 0.340    104.00000
 0.341    114.00000
 0.341    119.00000
 0.342    157.00000
 0.343    167.00000
 0.344    166.00000
 0.345    208.00000
 0.345    245.00000
 0.346    247.00000
 0.347    290.00000
 0.348    298.00000
 0.349    330.00000
 0.350    343.00000
 0.350    421.00000
 0.351    432.00000
 0.352    459.00000
 0.353    521.00000
 0.354    613.00000
 0.354    619.00000
 0.355    665.00000
 0.356    712.00000
 0.357    816.00000
 0.358    855.00000
 0.358    958.00000
 0.359    931.00000
 0.360    1075.00000
 0.361    1109.00000
 0.362    1206.00000
 0.363    1357.00000
 0.363    1379.00000
 0.364    1519.00000
 0.365    1629.00000
 0.366    1713.00000
 0.367    1834.00000
 0.367    1937.00000
 0.368    1954.00000
 0.369    2177.00000
 0.370    2247.00000
 0.371    2378.00000
 0.372    2566.00000
 0.372    2629.00000
 0.373    2760.00000
 0.374    2921.00000
 0.375    3108.00000
 0.376    3207.00000
 0.376    3253.00000
 0.377    3441.00000
 0.378    3607.00000
 0.379    3540.00000
 0.380    3915.00000
 0.380    3997.00000
 0.381    4112.00000
 0.382    4088.00000
 0.383    4408.00000
 0.384    4478.00000
 0.385    4590.00000
 0.385    4766.00000
 0.386    4839.00000
 0.387    4965.00000
 0.388    5103.00000
 0.389    5139.00000
 0.389    5080.00000
 0.390    5408.00000
 0.391    5242.00000
 0.392    5425.00000
 0.393    5393.00000
 0.394    5386.00000
 0.394    5519.00000
 0.395    5564.00000
 0.396    5634.00000
 0.397    5645.00000
 0.398    5531.00000
 0.398    5600.00000
 0.399    5558.00000
 0.400    5477.00000
 0.401    5515.00000
 0.402    5346.00000
 0.402    5239.00000
 0.403    5160.00000
 0.404    5180.00000
 0.405    5053.00000
 0.406    5089.00000
 0.407    4925.00000
 0.407    4776.00000
 0.408    4699.00000
 0.409    4689.00000
 0.410    4470.00000
 0.411    4453.00000
 0.411    4315.00000
 0.412    4279.00000
 0.413    4056.00000
 0.414    4006.00000
 0.415    3891.00000
 0.416    3847.00000
 0.416    3762.00000
 0.417    3692.00000
 0.418    3540.00000
 0.419    3432.00000
 0.420    3388.00000
 0.420    3260.00000
 0.421    3101.00000
 0.422    3095.00000
 0.423    3066.00000
 0.424    2890.00000
 0.424    2859.00000
 0.425    2763.00000
 0.426    2759.00000
 0.427    2662.00000
 0.428    2684.00000
 0.429    2529.00000
 0.429    2489.00000
 0.430    2458.00000
 0.431    2306.00000
 0.432    2261.00000
 0.433    2307.00000
 0.433    2238.00000
 0.434    2238.00000
 0.435    2057.00000
 0.436    1959.00000
 0.437    1989.00000
 0.438    1927.00000
 0.438    1867.00000
 0.439    1868.00000
 0.440    1847.00000
 0.441    1780.00000
 0.442    1782.00000
 0.442    1637.00000
 0.443    1613.00000
 0.444    1561.00000
 0.445    1538.00000
 0.446    1468.00000
 0.446    1459.00000
 0.447    1466.00000
 0.448    1393.00000
 0.449    1381.00000
 0.450    1402.00000
 0.451    1298.00000
 0.451    1283.00000
 0.452    1180.00000
 0.453    1249.00000
 0.454    1155.00000
 0.455    1073.00000
 0.455    1030.00000
 0.456    1078.00000
 0.457    1134.00000
 0.458    1023.00000
 0.459    1007.00000
 0.460    963.00000
 0.460    894.00000
 0.461    869.00000
 0.462    917.00000
 0.463    912.00000
 0.464    818.00000
 0.464    794.00000
 0.465    824.00000
 0.466    775.00000
 0.467    791.00000
 0.468    739.00000
 0.468    756.00000
 0.469    730.00000
 0.470    748.00000
 0.471    694.00000
 0.472    695.00000
 0.473    598.00000
 0.473    642.00000
 0.474    663.00000
 0.475    646.00000
 0.476    581.00000
 0.477    594.00000
 0.477    566.00000
 0.478    586.00000
 0.479    573.00000
 0.480    524.00000
 0.481    567.00000
 0.482    544.00000
 0.482    529.00000
 0.483    535.00000
 0.484    546.00000
 0.485    495.00000
 0.486    504.00000
 0.486    499.00000
 0.487    535.00000
 0.488    480.00000
 0.489    472.00000
 0.490    485.00000
 0.490    439.00000
 0.491    463.00000
 0.492    452.00000
 0.493    471.00000
 0.494    471.00000
 0.495    445.00000
 0.495    432.00000
 0.496    454.00000
 0.497    427.00000
 0.498    418.00000
 0.499    438.00000
 0.499    381.00000
 0.500    390.00000
 0.501    392.00000
 0.502    435.00000
 0.503    396.00000
 0.504    409.00000
 0.504    383.00000
 0.505    429.00000
 0.506    367.00000
 0.507    411.00000
 0.508    404.00000
 0.508    360.00000
 0.509    358.00000
 0.510    361.00000
 0.511    395.00000
 0.512    368.00000
 0.512    357.00000
 0.513    330.00000
 0.514    354.00000
 0.515    354.00000
 0.516    317.00000
 0.517    311.00000
 0.517    338.00000
 0.518    355.00000
 0.519    337.00000
 0.520    338.00000
 0.521    334.00000
 0.521    335.00000
 0.522    348.00000
 0.523    334.00000
 0.524    336.00000
 0.525    300.00000
 0.526    347.00000
 0.526    329.00000
 0.527    319.00000
 0.528    287.00000
 0.529    291.00000
 0.530    269.00000
 0.530    293.00000
 0.531    324.00000
 0.532    290.00000
 0.533    280.00000
 0.534    287.00000
 0.534    302.00000
 0.535    275.00000
 0.536    307.00000
 0.537    260.00000
 0.538    259.00000
 0.539    257.00000
 0.539    284.00000
 0.540    258.00000
 0.541    252.00000
 0.542    270.00000
 0.543    277.00000
 0.543    277.00000
 0.544    263.00000
 0.545    266.00000
 0.546    279.00000
 0.547    248.00000
 0.547    294.00000
 0.548    244.00000
 0.549    231.00000
 0.550    273.00000
 0.551    260.00000
 0.552    266.00000
 0.552    253.00000
 0.553    230.00000
 0.554    249.00000
 0.555    269.00000
 0.556    257.00000
 0.556    233.00000
 0.557    237.00000
 0.558    211.00000
 0.559    224.00000
 0.560    207.00000
 0.561    222.00000
 0.561    250.00000
 0.562    194.00000
 0.563    224.00000
 0.564    208.00000
 0.565    237.00000
 0.565    227.00000
 0.566    222.00000
 0.567    198.00000
 0.568    210.00000
 0.569    198.00000
 0.569    214.00000
 0.570    200.00000
 0.571    209.00000
 0.572    224.00000
 0.573    187.00000
 0.574    208.00000
 0.574    192.00000
 0.575    209.00000
 0.576    201.00000
 0.577    201.00000
 0.578    173.00000
 0.578    185.00000
 0.579    195.00000
 0.580    204.00000
 0.581    185.00000
 0.582    195.00000
 0.583    178.00000
 0.583    154.00000
 0.584    148.00000
 0.585    177.00000
 0.586    179.00000
 0.587    174.00000
 0.587    176.00000
 0.588    171.00000
 0.589    160.00000
 0.590    168.00000
 0.591    186.00000
 0.591    201.00000
 0.592    157.00000
 0.593    173.00000
 0.594    131.00000
 0.595    163.00000
 0.596    175.00000
 0.596    165.00000
 0.597    172.00000
 0.598    156.00000
 0.599    166.00000
 0.600    176.00000
 0.600    164.00000
 0.601    157.00000
 0.602    155.00000
 0.603    166.00000
 0.604    182.00000
 0.605    144.00000
 0.605    154.00000
 0.606    144.00000
 0.607    160.00000
 0.608    162.00000
 0.609    173.00000
 0.609    177.00000
 0.610    156.00000
 0.611    159.00000
 0.612    153.00000
 0.613    158.00000
 0.613    152.00000
 0.614    164.00000
 0.615    147.00000
 0.616    164.00000
 0.617    145.00000
 0.618    144.00000
 0.618    165.00000
 0.619    138.00000
 0.620    154.00000
 0.621    163.00000
 0.622    150.00000
 0.622    139.00000
 0.623    157.00000
 0.624    144.00000
 0.625    158.00000
 0.626    141.00000
 0.627    156.00000
 0.627    146.00000
 0.628    163.00000
 0.629    139.00000
 0.630    145.00000
 0.631    145.00000
 0.631    136.00000
 0.632    133.00000
 0.633    136.00000
 0.634    144.00000
 0.635    161.00000
 0.635    143.00000
 0.636    159.00000
 0.637    142.00000
 0.638    150.00000
 0.639    140.00000
 0.640    111.00000
 0.640    139.00000
 0.641    139.00000
 0.642    133.00000
 0.643    132.00000
 0.644    137.00000
 0.644    145.00000
 0.645    132.00000
 0.646    144.00000
 0.647    138.00000
 0.648    133.00000
 0.649    130.00000
 0.649    152.00000
 0.650    164.00000
 0.651    117.00000
 0.652    115.00000
 0.653    123.00000
 0.653    122.00000
 0.654    145.00000
 0.655    116.00000
 0.656    146.00000
 0.657    114.00000
 0.657    126.00000
 0.658    125.00000
 0.659    137.00000
 0.660    109.00000
 0.661    107.00000
 0.662    118.00000
 0.662    141.00000
 0.663    99.00000
 0.664    126.00000
 0.665    128.00000
 0.666    108.00000
 0.666    112.00000
 0.667    123.00000
 0.668    104.00000
 0.669    106.00000
 0.670    117.00000
 0.671    121.00000
 0.671    125.00000
 0.672    114.00000
 0.673    126.00000
 0.674    114.00000
 0.675    130.00000
 0.675    99.00000
 0.676    129.00000
 0.677    100.00000
 0.678    106.00000
 0.679    120.00000
 0.679    113.00000
 0.680    107.00000
 0.681    108.00000
 0.682    115.00000
 0.683    104.00000
 0.684    108.00000
 0.684    112.00000
 0.685    100.00000
 0.686    120.00000
 0.687    106.00000
 0.688    106.00000
 0.688    92.00000
 0.689    98.00000
 0.690    116.00000
 0.691    115.00000
 0.692    96.00000
 0.693    96.00000
 0.693    103.00000
 0.694    99.00000
 0.695    111.00000
 0.696    105.00000
 0.697    122.00000
 0.697    93.00000
 0.698    102.00000
 0.699    108.00000
 0.700    98.00000
 0.701    99.00000
 0.701    107.00000
 0.702    96.00000
 0.703    100.00000
 0.704    88.00000
 0.705    77.00000
 0.706    110.00000
 0.706    101.00000
 0.707    95.00000
 0.708    87.00000
 0.709    108.00000
 0.710    105.00000
 0.710    92.00000
 0.711    117.00000
 0.712    100.00000
 0.713    104.00000
 0.714    93.00000
 0.715    102.00000
 0.715    117.00000
 0.716    90.00000
 0.717    96.00000
 0.718    101.00000
 0.719    99.00000
 0.719    106.00000
 0.720    112.00000
 0.721    93.00000
 0.722    96.00000
 0.723    94.00000
 0.723    112.00000
 0.724    89.00000
 0.725    103.00000
 0.726    113.00000
 0.727    102.00000
 0.728    100.00000
 0.728    95.00000
 0.729    90.00000
 0.730    109.00000
 0.731    103.00000
 0.732    80.00000
 0.732    88.00000
 0.733    91.00000
 0.734    98.00000
 0.735    100.00000
 0.736    82.00000
 0.737    112.00000
 0.737    108.00000
 0.738    99.00000
 0.739    108.00000
 0.740    93.00000
 0.741    123.00000
 0.741    101.00000
 0.742    98.00000
 0.743    94.00000
 0.744    79.00000
 0.745    95.00000
 0.745    101.00000
 0.746    96.00000
 0.747    106.00000
 0.748    87.00000
 0.749    105.00000
 0.750    85.00000
 0.750    90.00000
 0.751    99.00000
 0.752    86.00000
 0.753    82.00000
 0.754    110.00000
 0.754    96.00000
 0.755    109.00000
 0.756    107.00000
 0.757    89.00000
 0.758    106.00000
 0.759    102.00000
 0.759    114.00000
 0.760    99.00000
 0.761    106.00000
 0.762    79.00000
 0.763    98.00000
 0.763    97.00000
 0.764    115.00000
 0.765    90.00000
 0.766    108.00000
 0.767    102.00000
 0.767    119.00000
 0.768    104.00000
 0.769    93.00000
 0.770    109.00000
 0.771    96.00000
 0.772    90.00000
 0.772    92.00000
 0.773    86.00000
 0.774    91.00000
 0.775    97.00000
 0.776    93.00000
 0.776    104.00000
 0.777    95.00000
 0.778    105.00000
 0.779    108.00000
 0.780    99.00000
 0.781    89.00000
 0.781    96.00000
 0.782    93.00000
 0.783    89.00000
 0.784    86.00000
 0.785    89.00000
 0.785    107.00000
 0.786    104.00000
 0.787    80.00000
 0.788    97.00000
 0.789    121.00000
 0.789    99.00000
 0.790    99.00000
 0.791    91.00000
 0.792    108.00000
 0.793    115.00000
 0.794    107.00000
 0.794    109.00000
 0.795    115.00000
 0.796    88.00000
 0.797    96.00000
 0.798    90.00000
 0.798    94.00000
 0.799    113.00000
 0.800    89.00000
 0.801    85.00000
 0.802    101.00000
 0.803    102.00000
 0.803    87.00000
 0.804    96.00000
 0.805    84.00000
 0.806    109.00000
 0.807    99.00000
 0.807    124.00000
 0.808    99.00000
 0.809    93.00000
 0.810    99.00000
 0.811    93.00000
 0.811    102.00000
 0.812    88.00000
 0.813    100.00000
 0.814    105.00000
 0.815    98.00000
 0.816    102.00000
 0.816    99.00000
 0.817    100.00000
 0.818    106.00000
 0.819    92.00000
 0.820    87.00000
 0.820    102.00000
 0.821    93.00000
 0.822    91.00000
 0.823    99.00000
 0.824    97.00000
 0.825    71.00000
 0.825    76.00000
 0.826    95.00000
 0.827    101.00000
 0.828    84.00000
 0.829    87.00000
 0.829    80.00000
 0.830    78.00000
 0.831    80.00000
 0.832    88.00000
 0.833    82.00000
 0.833    85.00000
 0.834    81.00000
 0.835    92.00000
 0.836    65.00000
 0.837    70.00000
 0.838    73.00000
 0.838    78.00000
 0.839    68.00000
 0.840    76.00000
 0.841    71.00000
 0.842    90.00000
 0.842    83.00000
 0.843    70.00000
 0.844    81.00000
 0.845    69.00000
 0.846    76.00000
 0.847    75.00000
 0.847    70.00000
 0.848    75.00000
 0.849    69.00000
 0.850    82.00000
 0.851    57.00000
 0.851    52.00000
 0.852    64.00000
 0.853    62.00000
 0.854    59.00000
 0.855    63.00000
 0.855    66.00000
 0.856    59.00000
 0.857    50.00000
 0.858    59.00000
 0.859    48.00000
 0.860    67.00000
 0.860    62.00000
 0.861    56.00000
 0.862    56.00000
 0.863    52.00000
 0.864    66.00000
 0.864    42.00000
 0.865    36.00000
 0.866    40.00000
 0.867    57.00000
 0.868    43.00000
 0.869    39.00000
 0.869    57.00000
 0.870    45.00000
 0.871    55.00000
 0.872    35.00000
 0.873    36.00000
 0.873    41.00000
 0.874    38.00000
 0.875    54.00000
 0.876    26.00000
 0.877    41.00000
 0.877    43.00000
 0.878    47.00000
 0.879    31.00000
 0.880    35.00000
 0.881    38.00000
 0.882    35.00000
 0.882    39.00000
 0.883    29.00000
 0.884    41.00000
 0.885    40.00000
 0.886    28.00000
 0.886    37.00000
 0.887    37.00000
 0.888    33.00000
 0.889    38.00000
 0.890    35.00000
 0.891    28.00000
 0.891    28.00000
 0.892    37.00000
 0.893    38.00000
 0.894    29.00000
 0.895    24.00000
 0.895    35.00000
 0.896    25.00000
 0.897    24.00000
 0.898    33.00000
 0.899    30.00000
 0.899    25.00000
 0.900    34.00000
 0.901    28.00000
 0.902    26.00000
 0.903    28.00000
 0.904    30.00000
 0.904    24.00000
 0.905    29.00000
 0.906    28.00000
 0.907    31.00000
 0.908    23.00000
 0.908    25.00000
 0.909    21.00000
 0.910    16.00000
 0.911    18.00000
 0.912    34.00000
 0.912    33.00000
 0.913    28.00000
 0.914    22.00000
 0.915    27.00000
 0.916    28.00000
 0.917    13.00000
 0.917    23.00000
 0.918    19.00000
 0.919    22.00000
 0.920    29.00000
 0.921    22.00000
 0.921    34.00000
 0.922    20.00000
 0.923    17.00000
 0.924    24.00000
 0.925    23.00000
 0.926    20.00000
 0.926    24.00000
 0.927    27.00000
 0.928    27.00000
 0.929    17.00000
 0.930    17.00000
 0.930    20.00000
 0.931    19.00000
 0.932    25.00000
 0.933    18.00000
 0.934    22.00000
 0.934    18.00000
 0.935    16.00000
 0.936    15.00000
 0.937    15.00000
 0.938    22.00000
 0.939    18.00000
 0.939    17.00000
 0.940    18.00000
 0.941    13.00000
 0.942    16.00000
 0.943    27.00000
 0.943    16.00000
 0.944    14.00000
 0.945    22.00000
 0.946    16.00000
 0.947    13.00000
 0.948    22.00000
 0.948    16.00000
 0.949    18.00000
 0.950    16.00000
 0.951    20.00000
 0.952    17.00000
 0.952    12.00000
 0.953    18.00000
 0.954    19.00000
 0.955    16.00000
 0.956    20.00000
 0.956    8.00000
 0.957    16.00000
 0.958    20.00000
 0.959    21.00000
 0.960    12.00000
 0.961    15.00000
 0.961    12.00000
 0.962    17.00000
 0.963    15.00000
 0.964    16.00000
 0.965    17.00000
 0.965    13.00000
 0.966    16.00000
 0.967    13.00000
 0.968    11.00000
 0.969    6.00000
 0.970    19.00000
 0.970    12.00000
 0.971    13.00000
 0.972    16.00000
 0.973    14.00000
 0.974    20.00000
 0.974    15.00000
 0.975    7.00000
 0.976    14.00000
 0.977    16.00000
 0.978    13.00000
 0.978    15.00000
 0.979    21.00000
 0.980    10.00000
 0.981    16.00000
 0.982    11.00000
 0.983    16.00000
 0.983    6.00000
 0.984    14.00000
 0.985    15.00000
 0.986    10.00000
 0.987    10.00000
 0.987    17.00000
 0.988    11.00000
 0.989    21.00000
 0.990    11.00000
 0.991    15.00000
 0.992    15.00000
 0.992    14.00000
 0.993    14.00000
 0.994    9.00000
 0.995    13.00000
 0.996    12.00000
 0.996    6.00000
 0.997    17.00000
 0.998    13.00000
 0.999    14.00000
 1.000    13.00000
 1.000    9.00000
 1.001    12.00000
 1.002    12.00000
 1.003    19.00000
 1.004    17.00000
 1.005    12.00000
 1.005    9.00000
 1.006    13.00000
 1.007    14.00000
 1.008    14.00000
 1.009    17.00000
 1.009    15.00000
 1.010    15.00000
 1.011    10.00000
 1.012    15.00000
 1.013    12.00000
 1.014    16.00000
 1.014    13.00000
 1.015    13.00000
 1.016    9.00000
 1.017    9.00000
 1.018    6.00000
 1.018    9.00000
 1.019    16.00000
 1.020    11.00000
 1.021    13.00000
 1.022    8.00000
 1.022    25.00000
 1.023    14.00000
 1.024    14.00000
 1.025    13.00000
 1.026    9.00000
 1.027    12.00000
 1.027    16.00000
 1.028    3.00000
 1.029    5.00000
 1.030    8.00000
 1.031    7.00000
 1.031    12.00000
 1.032    13.00000
 1.033    10.00000
 1.034    9.00000
 1.035    12.00000
 1.036    8.00000
 1.036    22.00000
 1.037    12.00000
 1.038    14.00000
 1.039    17.00000
 1.040    9.00000
 1.040    10.00000
 1.041    15.00000
 1.042    15.00000
 1.043    12.00000
 1.044    12.00000
 1.044    13.00000
 1.045    10.00000
 1.046    11.00000
 1.047    9.00000
 1.048    7.00000
 1.049    7.00000
 1.049    12.00000
 1.050    11.00000
 1.051    10.00000
 1.052    10.00000
 1.053    12.00000
 1.053    9.00000
 1.054    13.00000
 1.055    10.00000
 1.056    7.00000
 1.057    15.00000
 1.058    14.00000
 1.058    13.00000
 1.059    11.00000
 1.060    4.00000
 1.061    12.00000
 1.062    10.00000
 1.062    11.00000
 1.063    13.00000
 1.064    3.00000
 1.065    9.00000
 1.066    8.00000
 1.066    16.00000
 1.067    9.00000
 1.068    9.00000
 1.069    11.00000
 1.070    7.00000
 1.071    10.00000
 1.071    10.00000
 1.072    8.00000
 1.073    19.00000
 1.074    14.00000
 1.075    7.00000
 1.075    11.00000
 1.076    13.00000
 1.077    7.00000
 1.078    6.00000
 1.079    8.00000
 1.080    13.00000
 1.080    10.00000
 1.081    8.00000
 1.082    7.00000
 1.083    6.00000
 1.084    9.00000
 1.084    3.00000
 1.085    13.00000
 1.086    11.00000
 1.087    7.00000
 1.088    7.00000
 1.088    11.00000
 1.089    6.00000
 1.090    9.00000
 1.091    6.00000
 1.092    8.00000
 1.093    13.00000
 1.093    13.00000
 1.094    11.00000
 1.095    4.00000
 1.096    10.00000
 1.097    6.00000
 1.097    8.00000
 1.098    9.00000
 1.099    7.00000
 1.100    7.00000
 1.101    9.00000
 1.102    13.00000
 1.102    12.00000
 1.103    5.00000
 1.104    6.00000
 1.105    7.00000
 1.106    12.00000
 1.106    6.00000
 1.107    7.00000
 1.108    4.00000
 1.109    9.00000
 1.110    6.00000
 1.110    4.00000
 1.111    11.00000
 1.112    10.00000
 1.113    9.00000
 1.114    9.00000
 1.115    4.00000
 1.115    11.00000
 1.116    6.00000
 1.117    12.00000
 1.118    12.00000
 1.119    9.00000
 1.119    6.00000
 1.120    6.00000
 1.121    11.00000
 1.122    5.00000
 1.123    10.00000
 1.124    5.00000
 1.124    6.00000
 1.125    7.00000
 1.126    14.00000
 1.127    16.00000
 1.128    11.00000
 1.128    6.00000
 1.129    5.00000
 1.130    6.00000
 1.131    3.00000
 1.132    4.00000
 1.132    4.00000
 1.133    6.00000
 1.134    3.00000
 1.135    5.00000
 1.136    5.00000
 1.137    6.00000
 1.137    7.00000
 1.138    9.00000
 1.139    6.00000
 1.140    9.00000
 1.141    10.00000
 1.141    3.00000
 1.142    11.00000
 1.143    5.00000
 1.144    8.00000
 1.145    6.00000
 1.146    8.00000
 1.146    10.00000
 1.147    5.00000
 1.148    5.00000
 1.149    17.00000
 1.150    8.00000
 1.150    3.00000
 1.151    7.00000
 1.152    4.00000
 1.153    6.00000
 1.154    9.00000
 1.154    7.00000
 1.155    7.00000
 1.156    8.00000
 1.157    3.00000
 1.158    4.00000
 1.159    8.00000
 1.159    7.00000
 1.160    6.00000
 1.161    8.00000
 1.162    6.00000
 1.163    9.00000
 1.163    7.00000
 1.164    4.00000
 1.165    10.00000
 1.166    10.00000
 1.167    6.00000
 1.168    6.00000
 1.168    7.00000
 1.169    9.00000
 1.170    4.00000
 1.171    7.00000
 1.172    8.00000
 1.172    1.00000
 1.173    7.00000
 1.174    7.00000
 1.175    10.00000
 1.176    6.00000
 1.176    7.00000
 1.177    2.00000
 1.178    5.00000
 1.179    5.00000
 1.180    7.00000
 1.181    6.00000
 1.181    7.00000
 1.182    9.00000
 1.183    4.00000
 1.184    2.00000
 1.185    9.00000
 1.185    7.00000
 1.186    2.00000
 1.187    7.00000
 1.188    5.00000
 1.189    8.00000
 1.190    3.00000
 1.190    10.00000
 1.191    8.00000
 1.192    2.00000
 1.193    10.00000
 1.194    5.00000
 1.194    7.00000
 1.195    3.00000
 1.196    6.00000
 1.197    10.00000
 1.198    3.00000
 1.198    6.00000
 1.199    2.00000
 1.200    7.00000
 1.201    7.00000
 1.202    6.00000
 1.203    8.00000
 1.203    4.00000
 1.204    8.00000
 1.205    6.00000
 1.206    5.00000
 1.207    4.00000
 1.207    4.00000
 1.208    3.00000
 1.209    7.00000
 1.210    5.00000
 1.211    4.00000
 1.212    5.00000
 1.212    6.00000
 1.213    5.00000
 1.214    3.00000
 1.215    5.00000
 1.216    6.00000
 1.216    8.00000
 1.217    3.00000
 1.218    5.00000
 1.219    6.00000
 1.220    6.00000
 1.220    4.00000
 1.221    7.00000
 1.222    2.00000
 1.223    3.00000
 1.224    6.00000
 1.225    5.00000
 1.225    6.00000
 1.226    5.00000
 1.227    4.00000
 1.228    4.00000
 1.229    5.00000
 1.229    4.00000
 1.230    4.00000
 1.231    2.00000
 1.232    4.00000
 1.233    5.00000
 1.234    3.00000
 1.234    7.00000
 1.235    6.00000
 1.236    2.00000
 1.237    2.00000
 1.238    2.00000
 1.238    6.00000
 1.239    3.00000
 1.240    7.00000
 1.241    9.00000
 1.242    2.00000
 1.242    3.00000
 1.243    5.00000
 1.244    5.00000
 1.245    5.00000
 1.246    3.00000
 1.247    7.00000
 1.247    4.00000
 1.248    0.00000
 1.249    2.00000
 1.250    6.00000
 1.251    4.00000
 1.251    5.00000
 1.252    3.00000
 1.253    3.00000
 1.254    7.00000
 1.255    5.00000
 1.255    7.00000
 1.256    4.00000
 1.257    6.00000
 1.258    5.00000
 1.259    4.00000
 1.260    6.00000
 1.260    5.00000
 1.261    3.00000
 1.262    2.00000
 1.263    4.00000
 1.264    5.00000
 1.264    3.00000
 1.265    5.00000
 1.266    3.00000
 1.267    4.00000
 1.268    3.00000
 1.269    3.00000
 1.269    2.00000
 1.270    5.00000
 1.271    1.00000
 1.272    2.00000
 1.273    7.00000
 1.273    3.00000
 1.274    3.00000
 1.275    7.00000
 1.276    1.00000
 1.277    3.00000
 1.277    3.00000
 1.278    5.00000
 1.279    2.00000
 1.280    6.00000
 1.281    1.00000
 1.282    4.00000
 1.282    5.00000
 1.283    4.00000
 1.284    2.00000
 1.285    2.00000
 1.286    6.00000
 1.286    2.00000
 1.287    2.00000
 1.288    5.00000
 1.289    4.00000
 1.290    2.00000
 1.291    0.00000
 1.291    4.00000
 1.292    4.00000
 1.293    3.00000
 1.294    1.00000
 1.295    3.00000
 1.295    5.00000
 1.296    2.00000
 1.297    4.00000
 1.298    3.00000
 1.299    2.00000
 1.299    3.00000
 1.300    3.00000
 1.301    2.00000
 1.302    3.00000
 1.303    3.00000
 1.304    2.00000
 1.304    1.00000
 1.305    4.00000
 1.306    4.00000
 1.307    3.00000
 1.308    3.00000
 1.308    3.00000
 1.309    6.00000
 1.310    5.00000
 1.311    0.00000
 1.312    2.00000
 1.313    1.00000
 1.313    1.00000
 1.314    5.00000
 1.315    2.00000
 1.316    3.00000
 1.317    2.00000
 1.317    2.00000
 1.318    2.00000
 1.319    3.00000
 1.320    3.00000
 1.321    2.00000
 1.321    2.00000
 1.322    4.00000
 1.323    2.00000
 1.324    2.00000
 1.325    3.00000
 1.326    5.00000
 1.326    2.00000
 1.327    1.00000
 1.328    0.00000
 1.329    3.00000
 1.330    2.00000
 1.330    3.00000
 1.331    3.00000
 1.332    1.00000
 1.333    4.00000
 1.334    5.00000
 1.335    3.00000
 1.335    2.00000
 1.336    2.00000
 1.337    3.00000
 1.338    1.00000
 1.339    4.00000
 1.339    2.00000
 1.340    3.00000
 1.341    8.00000
 1.342    4.00000
 1.343    2.00000
 1.343    3.00000
 1.344    3.00000
 1.345    5.00000
 1.346    3.00000
 1.347    7.00000
 1.348    0.00000
 1.348    2.00000
 1.349    2.00000
 1.350    3.00000
 1.351    4.00000
 1.352    3.00000
 1.352    4.00000
 1.353    4.00000
 1.354    1.00000
 1.355    1.00000
 1.356    3.00000
 1.357    2.00000
 1.357    3.00000
 1.358    4.00000
 1.359    2.00000
 1.360    2.00000
 1.361    3.00000
 1.361    3.00000
 1.362    2.00000
 1.363    6.00000
 1.364    4.00000
 1.365    6.00000
 1.365    3.00000
 1.366    1.00000
 1.367    3.00000
 1.368    0.00000
 1.369    4.00000
 1.370    2.00000
 1.370    3.00000
 1.371    4.00000
 1.372    5.00000
 1.373    4.00000
 1.374    1.00000
 1.374    6.00000
 1.375    2.00000
 1.376    1.00000
 1.377    3.00000
 1.378    3.00000
 1.379    1.00000
 1.379    6.00000
 1.380    5.00000
 1.381    1.00000
 1.382    2.00000
 1.383    1.00000
 1.383    3.00000
 1.384    4.00000
 1.385    3.00000
 1.386    2.00000
 1.387    2.00000
 1.387    4.00000
 1.388    2.00000
 1.389    8.00000
 1.390    3.00000
 1.391    0.00000
 1.392    3.00000
 1.392    3.00000
 1.393    2.00000
 1.394    3.00000
 1.395    7.00000
 1.396    2.00000
 1.396    4.00000
 1.397    4.00000
 1.398    1.00000
 1.399    1.00000
 1.400    4.00000
 1.401    5.00000
 1.401    3.00000
 1.402    4.00000
 1.403    2.00000
 1.404    1.00000
 1.405    5.00000
 1.405    2.00000
 1.406    0.00000
 1.407    4.00000
 1.408    3.00000
 1.409    1.00000
 1.409    2.00000
 1.410    0.00000
 1.411    2.00000
 1.412    1.00000
 1.413    3.00000
 1.414    2.00000
 1.414    0.00000
 1.415    2.00000
 1.416    0.00000
 1.417    1.00000
 1.418    6.00000
 1.418    5.00000
 1.419    4.00000
 1.420    2.00000
 1.421    5.00000
 1.422    3.00000
 1.423    1.00000
 1.423    2.00000
 1.424    3.00000
 1.425    2.00000
 1.426    3.00000
 1.427    1.00000
 1.427    3.00000
 1.428    3.00000
 1.429    3.00000
 1.430    5.00000
 1.431    4.00000
 1.431    1.00000
 1.432    1.00000
 1.433    3.00000
 1.434    5.00000
 1.435    4.00000
 1.436    4.00000
 1.436    1.00000
 1.437    2.00000
 1.438    2.00000
 1.439    4.00000
 1.440    2.00000
 1.440    5.00000
 1.441    5.00000
 1.442    4.00000
 1.443    2.00000
 1.444    3.00000
 1.445    2.00000
 1.445    0.00000
 1.446    2.00000
 1.447    4.00000
 1.448    1.00000
 1.449    2.00000
 1.449    2.00000
 1.450    2.00000
 1.451    4.00000
 1.452    3.00000
 1.453    1.00000
 1.453    2.00000
 1.454    2.00000
 1.455    3.00000
 1.456    3.00000
 1.457    5.00000
 1.458    1.00000
 1.458    3.00000
 1.459    0.00000
 1.460    3.00000
 1.461    0.00000
 1.462    0.00000
 1.462    2.00000
 1.463    2.00000
 1.464    2.00000
 1.465    1.00000
 1.466    2.00000
 1.467    1.00000
 1.467    3.00000
 1.468    6.00000
 1.469    3.00000
 1.470    0.00000
 1.471    2.00000
 1.471    2.00000
 1.472    3.00000
 1.473    4.00000
 1.474    2.00000
 1.475    1.00000
 1.475    1.00000
 1.476    0.00000
 1.477    3.00000
 1.478    2.00000
 1.479    2.00000
 1.480    0.00000
 1.480    1.00000
 1.481    3.00000
 1.482    1.00000
 1.483    0.00000
 1.484    4.00000
 1.484    2.00000
 1.485    1.00000
 1.486    2.00000
 1.487    2.00000
 1.488    2.00000
 1.489    2.00000
 1.489    0.00000
 1.490    5.00000
 1.491    3.00000
 1.492    4.00000
 1.493    4.00000
 1.493    1.00000
 1.494    4.00000
 1.495    0.00000
 1.496    1.00000
 1.497    0.00000
 1.497    3.00000
 1.498    1.00000
 1.499    1.00000
 1.500    3.00000
 1.501    2.00000
 1.502    4.00000
 1.502    1.00000
 1.503    2.00000
 1.504    2.00000
 1.505    1.00000
 1.506    0.00000
 1.506    0.00000
 1.507    2.00000
 1.508    2.00000
 1.509    2.00000
 1.510    1.00000
 1.511    1.00000
 1.511    0.00000
 1.512    0.00000
 1.513    0.00000
 1.514    1.00000
 1.515    2.00000
 1.515    1.00000
 1.516    1.00000
 1.517    0.00000
 1.518    2.00000
 1.519    3.00000
 1.519    1.00000
 1.520    3.00000
 1.521    2.00000
 1.522    2.00000
 1.523    2.00000
 1.524    1.00000
 1.524    2.00000
 1.525    5.00000
 1.526    1.00000
 1.527    0.00000
 1.528    3.00000
 1.528    1.00000
 1.529    2.00000
 1.530    0.00000
 1.531    1.00000
 1.532    0.00000
 1.533    3.00000
 1.533    0.00000
 1.534    0.00000
 1.535    1.00000
 1.536    2.00000
 1.537    4.00000
 1.537    2.00000
 1.538    1.00000
 1.539    0.00000
 1.540    1.00000
 1.541    1.00000
 1.541    3.00000
 1.542    1.00000
 1.543    1.00000
 1.544    2.00000
 1.545    1.00000
 1.546    2.00000
 1.546    0.00000
 1.547    2.00000
 1.548    1.00000
 1.549    0.00000
 1.550    0.00000
 1.550    1.00000
 1.551    2.00000
 1.552    3.00000
 1.553    4.00000
 1.554    1.00000
 1.555    1.00000
 1.555    1.00000
 1.556    1.00000
 1.557    1.00000
 1.558    2.00000
 1.559    3.00000
 1.559    0.00000
 1.560    4.00000
 1.561    1.00000
 1.562    3.00000
 1.563    2.00000
 1.563    2.00000
 1.564    0.00000
 1.565    3.00000
 1.566    0.00000
 1.567    2.00000
 1.568    5.00000
 1.568    1.00000
 1.569    0.00000
 1.570    0.00000
 1.571    0.00000
 1.572    2.00000
 1.572    1.00000
 1.573    2.00000
 1.574    1.00000
 1.575    2.00000
 1.576    1.00000
 1.577    1.00000
 1.577    1.00000
 1.578    0.00000
 1.579    1.00000
 1.580    1.00000
 1.581    1.00000
 1.581    2.00000
 1.582    3.00000
 1.583    1.00000
 1.584    0.00000
 1.585    2.00000
 1.585    3.00000
 1.586    1.00000
 1.587    1.00000
 1.588    0.00000
 1.589    1.00000
 1.590    2.00000
 1.590    2.00000
 1.591    1.00000
 1.592    1.00000
 1.593    1.00000
 1.594    1.00000
 1.594    3.00000
 1.595    1.00000
 1.596    1.00000
 1.597    2.00000
 1.598    1.00000
 1.599    2.00000
 1.599    1.00000
 1.600    3.00000
 1.601    0.00000
 1.602    1.00000
 1.603    1.00000
 1.603    1.00000
 1.604    2.00000
 1.605    0.00000
 1.606    1.00000
 1.607    0.00000
 1.607    2.00000
 1.608    1.00000
 1.609    0.00000
 1.610    2.00000
 1.611    1.00000
 1.612    0.00000
 1.612    2.00000
 1.613    2.00000
 1.614    2.00000
 1.615    2.00000
 1.616    2.00000
 1.616    1.00000
 1.617    3.00000
 1.618    0.00000
 1.619    3.00000
 1.620    1.00000
 1.620    2.00000
 1.621    3.00000
 1.622    2.00000
 1.623    0.00000
 1.624    2.00000
 1.625    0.00000
 1.625    4.00000
 1.626    0.00000
 1.627    1.00000
 1.628    3.00000
 1.629    2.00000
 1.629    1.00000
 1.630    1.00000
 1.631    4.00000
 1.632    3.00000
 1.633    1.00000
 1.634    1.00000
 1.634    0.00000
 1.635    1.00000
 1.636    0.00000
 1.637    2.00000
 1.638    1.00000
 1.638    0.00000
 1.639    0.00000
 1.640    2.00000
 1.641    1.00000
 1.642    0.00000
 1.642    1.00000
 1.643    1.00000
 1.644    3.00000
 1.645    1.00000
 1.646    3.00000
 1.647    1.00000
 1.647    4.00000
 1.648    1.00000
 1.649    0.00000
 1.650    2.00000
 1.651    2.00000
 1.651    1.00000
 1.652    1.00000
 1.653    5.00000
 1.654    1.00000
 1.655    0.00000
 1.656    0.00000
 1.656    1.00000
 1.657    2.00000
 1.658    1.00000
 1.659    1.00000
 1.660    2.00000
 1.660    2.00000
 1.661    2.00000
 1.662    3.00000
 1.663    2.00000
 1.664    1.00000
 1.664    1.00000
 1.665    3.00000
 1.666    0.00000
 1.667    1.00000
 1.668    1.00000
 1.669    4.00000
 1.669    0.00000
 1.670    1.00000
 1.671    1.00000
 1.672    2.00000
 1.673    4.00000
 1.673    2.00000
 1.674    2.00000
 1.675    1.00000
 1.676    2.00000
 1.677    2.00000
 1.678    0.00000
 1.678    1.00000
 1.679    1.00000
 1.680    1.00000
 1.681    2.00000
 1.682    1.00000
 1.682    0.00000
 1.683    2.00000
 1.684    2.00000
 1.685    1.00000
 1.686    1.00000
 1.686    1.00000
 1.687    4.00000
 1.688    2.00000
 1.689    1.00000
 1.690    4.00000
 1.691    1.00000
 1.691    1.00000
 1.692    0.00000
 1.693    2.00000
 1.694    0.00000
 1.695    1.00000
 1.695    1.00000
 1.696    1.00000
 1.697    2.00000
 1.698    0.00000
 1.699    2.00000
 1.700    2.00000
 1.700    0.00000
 1.701    1.00000
 1.702    2.00000
 1.703    1.00000
 1.704    2.00000
 1.704    4.00000
 1.705    2.00000
 1.706    0.00000
 1.707    2.00000
 1.708    3.00000
 1.708    4.00000
 1.709    0.00000
 1.710    3.00000
 1.711    2.00000
 1.712    0.00000
 1.713    4.00000
 1.713    2.00000
 1.714    0.00000
 1.715    2.00000
 1.716    2.00000
 1.717    1.00000
 1.717    0.00000
 1.718    1.00000
 1.719    2.00000
 1.720    0.00000
 1.721    2.00000
 1.722    1.00000
 1.722    1.00000
 1.723    4.00000
 1.724    0.00000
 1.725    1.00000
 1.726    1.00000
 1.726    1.00000
 1.727    1.00000
 1.728    3.00000
 1.729    1.00000
 1.730    1.00000
 1.730    2.00000
 1.731    0.00000
 1.732    2.00000
 1.733    3.00000
 1.734    3.00000
 1.735    1.00000
 1.735    1.00000
 1.736    1.00000
 1.737    3.00000
 1.738    5.00000
 1.739    2.00000
 1.739    0.00000
 1.740    0.00000
 1.741    2.00000
 1.742    3.00000
 1.743    1.00000
 1.744    2.00000
 1.744    2.00000
 1.745    4.00000
 1.746    1.00000
 1.747    1.00000
 1.748    1.00000
 1.748    1.00000
 1.749    3.00000
 1.750    1.00000
 1.751    5.00000
 1.752    1.00000
 1.752    1.00000
 1.753    1.00000
 1.754    1.00000
 1.755    2.00000
 1.756    1.00000
 1.757    2.00000
 1.757    1.00000
 1.758    2.00000
 1.759    1.00000
 1.760    5.00000
 1.761    2.00000
 1.761    2.00000
 1.762    0.00000
 1.763    0.00000
 1.764    0.00000
 1.765    0.00000
 1.766    2.00000
 1.766    1.00000
 1.767    1.00000
 1.768    0.00000
 1.769    2.00000
 1.770    0.00000
 1.770    2.00000
 1.771    1.00000
 1.772    0.00000
 1.773    2.00000
 1.774    2.00000
 1.774    2.00000
 1.775    0.00000
 1.776    1.00000
 1.777    0.00000
 1.778    1.00000
 1.779    1.00000
 1.779    1.00000
 1.780    0.00000
 1.781    0.00000
 1.782    2.00000
 1.783    0.00000
 1.783    0.00000
 1.784    2.00000
 1.785    0.00000
 1.786    2.00000
 1.787    4.00000
 1.788    1.00000
 1.788    3.00000
 1.789    1.00000
 1.790    2.00000
 1.791    0.00000
 1.792    3.00000
 1.792    1.00000
 1.793    0.00000
 1.794    0.00000
 1.795    1.00000
 1.796    0.00000
 1.796    0.00000
 1.797    1.00000
 1.798    1.00000
 1.799    1.00000
 1.800    0.00000
 1.801    0.00000
 1.801    1.00000
 1.802    1.00000
 1.803    1.00000
 1.804    3.00000
 1.805    0.00000
 1.805    2.00000
 1.806    0.00000
 1.807    2.00000
 1.808    3.00000
 1.809    3.00000
 1.810    0.00000
 1.810    1.00000
 1.811    3.00000
 1.812    1.00000
 1.813    1.00000
 1.814    1.00000
 1.814    2.00000
 1.815    3.00000
 1.816    1.00000
 1.817    1.00000
 1.818    3.00000
 1.818    0.00000
 1.819    1.00000
 1.820    2.00000
 1.821    0.00000
 1.822    1.00000
 1.823    0.00000
 1.823    1.00000
 1.824    0.00000
 1.825    1.00000
 1.826    4.00000
 1.827    0.00000
 1.827    1.00000
 1.828    3.00000
 1.829    1.00000
 1.830    0.00000
 1.831    0.00000
 1.832    0.00000
 1.832    1.00000
 1.833    0.00000
 1.834    1.00000
 1.835    1.00000
 1.836    1.00000
 1.836    3.00000
 1.837    2.00000
 1.838    0.00000
 1.839    2.00000
 1.840    2.00000
 1.840    2.00000
 1.841    0.00000
 1.842    2.00000
 1.843    3.00000
 1.844    1.00000
 1.845    2.00000
 1.845    3.00000
 1.846    1.00000
 1.847    1.00000
 1.848    6.00000
 1.849    3.00000
 1.849    1.00000
 1.850    0.00000
 1.851    0.00000
 1.852    0.00000
 1.853    1.00000
 1.854    1.00000
 1.854    4.00000
 1.855    0.00000
 1.856    1.00000
 1.857    2.00000
 1.858    2.00000
 1.858    2.00000
 1.859    2.00000
 1.860    2.00000
 1.861    0.00000
 1.862    2.00000
 1.862    0.00000
 1.863    1.00000
 1.864    0.00000
 1.865    1.00000
 1.866    1.00000
 1.867    0.00000
 1.867    3.00000
 1.868    0.00000
 1.869    1.00000
 1.870    1.00000
 1.871    1.00000
 1.871    1.00000
 1.872    0.00000
 1.873    3.00000
 1.874    2.00000
 1.875    2.00000
 1.876    3.00000
 1.876    0.00000
 1.877    1.00000
 1.878    1.00000
 1.879    0.00000
 1.880    1.00000
 1.880    1.00000
 1.881    1.00000
 1.882    4.00000
 1.883    1.00000
 1.884    2.00000
 1.884    4.00000
 1.885    0.00000
 1.886    0.00000
 1.887    2.00000
 1.888    2.00000
 1.889    1.00000
 1.889    0.00000
 1.890    3.00000
 1.891    1.00000
 1.892    1.00000
 1.893    3.00000
 1.893    0.00000
 1.894    0.00000
 1.895    2.00000
 1.896    1.00000
 1.897    1.00000
 1.898    4.00000
 1.898    1.00000
 1.899    5.00000
 1.900    0.00000
 1.901    0.00000
 1.902    2.00000
 1.902    2.00000
 1.903    0.00000
 1.904    0.00000
 1.905    0.00000
 1.906    2.00000
 1.906    0.00000
 1.907    4.00000
 1.908    1.00000
 1.909    2.00000
 1.910    1.00000
 1.911    2.00000
 1.911    1.00000
 1.912    2.00000
 1.913    4.00000
 1.914    1.00000
 1.915    1.00000
 1.915    1.00000
 1.916    3.00000
 1.917    2.00000
 1.918    0.00000
 1.919    0.00000
 1.920    2.00000
 1.920    2.00000
 1.921    2.00000
 1.922    2.00000
 1.923    0.00000
 1.924    1.00000
 1.924    1.00000
 1.925    1.00000
 1.926    3.00000
 1.927    1.00000
 1.928    0.00000
 1.928    3.00000
 1.929    2.00000
 1.930    0.00000
 1.931    0.00000
 1.932    2.00000
 1.933    3.00000
 1.933    3.00000
 1.934    1.00000
 1.935    0.00000
 1.936    1.00000
 1.937    0.00000
 1.937    0.00000
 1.938    0.00000
 1.939    2.00000
 1.940    0.00000
 1.941    0.00000
 1.942    1.00000
 1.942    1.00000
 1.943    4.00000
 1.944    2.00000
 1.945    0.00000
 1.946    1.00000
 1.946    1.00000
 1.947    0.00000
 1.948    1.00000
 1.949    2.00000
 1.950    1.00000
 1.950    0.00000
 1.951    1.00000
 1.952    1.00000
 1.953    0.00000
 1.954    1.00000
 1.955    0.00000
 1.955    0.00000
 1.956    2.00000
 1.957    1.00000
 1.958    2.00000
 1.959    1.00000
 1.959    2.00000
 1.960    1.00000
 1.961    0.00000
 1.962    0.00000
 1.963    2.00000
 1.964    0.00000
 1.964    0.00000
 1.965    3.00000
 1.966    1.00000
 1.967    1.00000
 1.968    0.00000
 1.968    1.00000
 1.969    0.00000
 1.970    1.00000
 1.971    2.00000
 1.972    1.00000
 1.972    1.00000
 1.973    0.00000
 1.974    3.00000
 1.975    0.00000
 1.976    1.00000
 1.977    0.00000
 1.977    1.00000
 1.978    1.00000
 1.979    1.00000
 1.980    1.00000
 1.981    1.00000
 1.981    2.00000
 1.982    1.00000
 1.983    0.00000
 1.984    0.00000
 1.985    0.00000
 1.985    1.00000
 1.986    0.00000
 1.987    2.00000
 1.988    1.00000
 1.989    3.00000
 1.990    2.00000
 1.990    0.00000
 1.991    1.00000
 1.992    1.00000
 1.993    2.00000
 1.994    0.00000
 1.994    0.00000
 1.995    0.00000
 1.996    1.00000
 1.997    1.00000
 1.998    2.00000
 1.999    1.00000
 1.999    1.00000
 2.000    1.00000
 2.001    2.00000
 2.002    2.00000
 2.003    1.00000
 2.003    3.00000
 2.004    1.00000
 2.005    1.00000
 2.006    3.00000
 2.007    0.00000
 2.007    1.00000
 2.008    3.00000
 2.009    3.00000
 2.010    1.00000
 2.011    0.00000
 2.012    1.00000
 2.012    0.00000
 2.013    2.00000
 2.014    1.00000
 2.015    0.00000
 2.016    1.00000
 2.016    1.00000
 2.017    1.00000
 2.018    2.00000
 2.019    2.00000
 2.020    3.00000
 2.021    0.00000
 2.021    0.00000
 2.022    1.00000
 2.023    3.00000
 2.024    2.00000
 2.025    4.00000
 2.025    0.00000
 2.026    3.00000
 2.027    0.00000
 2.028    2.00000
 2.029    0.00000
 2.029    2.00000
 2.030    0.00000
 2.031    1.00000
 2.032    0.00000
 2.033    0.00000
 2.034    0.00000
 2.034    2.00000
 2.035    0.00000
 2.036    4.00000
 2.037    1.00000
 2.038    5.00000
 2.038    1.00000
 2.039    3.00000
 2.040    4.00000
 2.041    1.00000
 2.042    1.00000
 2.043    2.00000
 2.043    1.00000
 2.044    3.00000
 2.045    1.00000
 2.046    2.00000
 2.047    1.00000
 2.047    1.00000
 2.048    0.00000
 2.049    0.00000
 2.050    1.00000
 2.051    2.00000
 2.051    1.00000
 2.052    0.00000
 2.053    2.00000
 2.054    2.00000
 2.055    0.00000
 2.056    1.00000
 2.056    0.00000
 2.057    1.00000
 2.058    3.00000
 2.059    0.00000
 2.060    1.00000
 2.060    1.00000
 2.061    0.00000
 2.062    2.00000
 2.063    1.00000
 2.064    1.00000
 2.065    0.00000
 2.065    2.00000
 2.066    1.00000
 2.067    0.00000
 2.068    3.00000
 2.069    0.00000
 2.069    1.00000
 2.070    2.00000
 2.071    1.00000
 2.072    1.00000
 2.073    1.00000
 2.073    3.00000
 2.074    2.00000
 2.075    2.00000
 2.076    2.00000
 2.077    0.00000
 2.078    0.00000
 2.078    3.00000
 2.079    0.00000
 2.080    0.00000
 2.081    3.00000
 2.082    1.00000
 2.082    3.00000
 2.083    3.00000
 2.084    0.00000
 2.085    0.00000
 2.086    3.00000
 2.087    0.00000
 2.087    1.00000
 2.088    0.00000
 2.089    1.00000
 2.090    1.00000
 2.091    3.00000
 2.091    1.00000
 2.092    0.00000
 2.093    3.00000
 2.094    1.00000
 2.095    1.00000
 2.095    1.00000
 2.096    0.00000
 2.097    3.00000
 2.098    3.00000
 2.099    3.00000
 2.100    2.00000
 2.100    2.00000
 2.101    1.00000
 2.102    0.00000
 2.103    2.00000
 2.104    4.00000
 2.104    1.00000
 2.105    2.00000
 2.106    1.00000
 2.107    1.00000
 2.108    0.00000
 2.109    1.00000
 2.109    4.00000
 2.110    1.00000
 2.111    0.00000
 2.112    1.00000
 2.113    1.00000
 2.113    1.00000
 2.114    1.00000
 2.115    2.00000
 2.116    1.00000
 2.117    1.00000
 2.117    1.00000
 2.118    2.00000
 2.119    1.00000
 2.120    2.00000
 2.121    3.00000
 2.122    0.00000
 2.122    1.00000
 2.123    2.00000
 2.124    3.00000
 2.125    1.00000
 2.126    0.00000
 2.126    0.00000
 2.127    1.00000
 2.128    2.00000
 2.129    2.00000
 2.130    3.00000
 2.131    0.00000
 2.131    2.00000
 2.132    0.00000
 2.133    0.00000
 2.134    0.00000
 2.135    0.00000
 2.135    5.00000
 2.136    1.00000
 2.137    2.00000
 2.138    1.00000
 2.139    1.00000
 2.139    1.00000
 2.140    0.00000
 2.141    2.00000
 2.142    2.00000
 2.143    1.00000
 2.144    1.00000
 2.144    1.00000
 2.145    1.00000
 2.146    0.00000
 2.147    1.00000
 2.148    3.00000
 2.148    0.00000
 2.149    1.00000
 2.150    1.00000
 2.151    1.00000
 2.152    0.00000
 2.153    1.00000
 2.153    1.00000
 2.154    1.00000
 2.155    2.00000
 2.156    0.00000
 2.157    0.00000
 2.157    1.00000
 2.158    0.00000
 2.159    1.00000
 2.160    0.00000
 2.161    1.00000
 2.161    1.00000
 2.162    1.00000
 2.163    2.00000
 2.164    0.00000
 2.165    3.00000
 2.166    2.00000
 2.166    2.00000
 2.167    2.00000
 2.168    0.00000
 2.169    1.00000
 2.170    1.00000
 2.170    1.00000
 2.171    1.00000
 2.172    2.00000
 2.173    3.00000
 2.174    1.00000
 2.175    0.00000
 2.175    1.00000
 2.176    1.00000
 2.177    1.00000
 2.178    0.00000
 2.179    0.00000
 2.179    0.00000
 2.180    4.00000
 2.181    0.00000
 2.182    3.00000
 2.183    1.00000
 2.183    0.00000
 2.184    1.00000
 2.185    1.00000
 2.186    1.00000
 2.187    2.00000
 2.188    0.00000
 2.188    3.00000
 2.189    3.00000
 2.190    1.00000
 2.191    0.00000
 2.192    0.00000
 2.192    2.00000
 2.193    1.00000
 2.194    0.00000
 2.195    1.00000
 2.196    1.00000
 2.197    3.00000
 2.197    1.00000
 2.198    1.00000
 2.199    1.00000
 2.200    0.00000
 2.201    0.00000
 2.201    1.00000
 2.202    1.00000
 2.203    2.00000
 2.204    0.00000
 2.205    0.00000
 2.205    0.00000
 2.206    3.00000
 2.207    1.00000
 2.208    1.00000
 2.209    0.00000
 2.210    0.00000
 2.210    2.00000
 2.211    0.00000
 2.212    2.00000
 2.213    0.00000
 2.214    0.00000
 2.214    1.00000
 2.215    0.00000
 2.216    1.00000
 2.217    4.00000
 2.218    2.00000
 2.219    1.00000
 2.219    2.00000
 2.220    2.00000
 2.221    0.00000
 2.222    0.00000
 2.223    1.00000
 2.223    2.00000
 2.224    1.00000
 2.225    1.00000
 2.226    2.00000
 2.227    0.00000
 2.227    1.00000
 2.228    0.00000
 2.229    1.00000
 2.230    2.00000
 2.231    1.00000
 2.232    0.00000
 2.232    1.00000
 2.233    0.00000
 2.234    2.00000
 2.235    3.00000
 2.236    1.00000
 2.236    3.00000
 2.237    1.00000
 2.238    2.00000
 2.239    0.00000
 2.240    2.00000
 2.241    0.00000
 2.241    3.00000
 2.242    2.00000
 2.243    0.00000
 2.244    1.00000
 2.245    0.00000
 2.245    1.00000
 2.246    1.00000
 2.247    2.00000
 2.248    2.00000
 2.249    3.00000
 2.249    0.00000
 2.250    1.00000
 2.251    0.00000
 2.252    3.00000
 2.253    3.00000
 2.254    0.00000
 2.254    2.00000
 2.255    2.00000
 2.256    1.00000
 2.257    0.00000
 2.258    0.00000
 2.258    1.00000
 2.259    2.00000
 2.260    1.00000
 2.261    2.00000
 2.262    2.00000
 2.263    1.00000
 2.263    1.00000
 2.264    2.00000
 2.265    1.00000
 2.266    1.00000
 2.267    1.00000
 2.267    0.00000
 2.268    2.00000
 2.269    0.00000
 2.270    1.00000
 2.271    0.00000
 2.271    1.00000
 2.272    0.00000
 2.273    0.00000
 2.274    1.00000
 2.275    1.00000
 2.276    0.00000
 2.276    0.00000
 2.277    0.00000
 2.278    1.00000
 2.279    1.00000
 2.280    2.00000
 2.280    1.00000
 2.281    3.00000
 2.282    2.00000
 2.283    1.00000
 2.284    1.00000
 2.285    3.00000
 2.285    2.00000
 2.286    0.00000
 2.287    0.00000
 2.288    2.00000
 2.289    2.00000
 2.289    3.00000
 2.290    1.00000
 2.291    1.00000
 2.292    1.00000
 2.293    1.00000
 2.293    1.00000
 2.294    2.00000
 2.295    0.00000
 2.296    0.00000
 2.297    0.00000
 2.298    1.00000
 2.298    2.00000
 2.299    0.00000
 2.300    2.00000
 2.301    1.00000
 2.302    0.00000
 2.302    3.00000
 2.303    1.00000
 2.304    1.00000
 2.305    0.00000
 2.306    0.00000
 2.307    1.00000
 2.307    1.00000
 2.308    2.00000
 2.309    1.00000
 2.310    2.00000
 2.311    1.00000
 2.311    2.00000
 2.312    0.00000
 2.313    0.00000
 2.314    1.00000
 2.315    0.00000
 2.315    1.00000
 2.316    2.00000
 2.317    1.00000
 2.318    0.00000
 2.319    2.00000
 2.320    0.00000
 2.320    2.00000
 2.321    1.00000
 2.322    2.00000
 2.323    1.00000
 2.324    2.00000
 2.324    1.00000
 2.325    0.00000
 2.326    2.00000
 2.327    0.00000
 2.328    0.00000
 2.328    1.00000
 2.329    1.00000
 2.330    0.00000
 2.331    0.00000
 2.332    0.00000
 2.333    1.00000
 2.333    1.00000
 2.334    1.00000
 2.335    1.00000
 2.336    0.00000
 2.337    2.00000
 2.337    1.00000
 2.338    0.00000
 2.339    1.00000
 2.340    1.00000
 2.341    0.00000
 2.342    1.00000
 2.342    0.00000
 2.343    1.00000
 2.344    3.00000
 2.345    0.00000
 2.346    1.00000
 2.346    1.00000
 2.347    5.00000
 2.348    2.00000
 2.349    2.00000
 2.350    1.00000
 2.350    2.00000
 2.351    0.00000
 2.352    1.00000
 2.353    2.00000
 2.354    0.00000
 2.355    3.00000
 2.355    0.00000
 2.356    1.00000
 2.357    0.00000
 2.358    1.00000
 2.359    0.00000
 2.359    2.00000
 2.360    2.00000
 2.361    2.00000
 2.362    0.00000
 2.363    0.00000
 2.364    0.00000
 2.364    1.00000
 2.365    0.00000
 2.366    1.00000
 2.367    1.00000
 2.368    1.00000
 2.368    3.00000
 2.369    0.00000
 2.370    0.00000
 2.371    1.00000
 2.372    1.00000
 2.372    0.00000
 2.373    2.00000
 2.374    1.00000
 2.375    0.00000
 2.376    1.00000
 2.377    2.00000
 2.377    4.00000
 2.378    1.00000
 2.379    1.00000
 2.380    0.00000
 2.381    1.00000
 2.381    0.00000
 2.382    0.00000
 2.383    2.00000
 2.384    3.00000
 2.385    3.00000
 2.386    1.00000
 2.386    1.00000
 2.387    1.00000
 2.388    2.00000
 2.389    0.00000
 2.390    1.00000
 2.390    1.00000
 2.391    1.00000
 2.392    0.00000
 2.393    2.00000
 2.394    0.00000
 2.394    1.00000
 2.395    1.00000
 2.396    1.00000
 2.397    1.00000
 2.398    0.00000
 2.399    1.00000
 2.399    0.00000
 2.400    0.00000
 2.401    2.00000
 2.402    0.00000
 2.403    2.00000
 2.403    1.00000
 2.404    4.00000
 2.405    3.00000
 2.406    1.00000
 2.407    0.00000
 2.408    2.00000
 2.408    0.00000
 2.409    0.00000
 2.410    1.00000
 2.411    0.00000
 2.412    2.00000
 2.412    1.00000
 2.413    1.00000
 2.414    1.00000
 2.415    3.00000
 2.416    1.00000
 2.416    0.00000
 2.417    0.00000
 2.418    1.00000
 2.419    0.00000
 2.420    1.00000
 2.421    0.00000
 2.421    2.00000
 2.422    0.00000
 2.423    0.00000
 2.424    1.00000
 2.425    1.00000
 2.425    0.00000
 2.426    0.00000
 2.427    1.00000
 2.428    0.00000
 2.429    1.00000
 2.430    1.00000
 2.430    3.00000
 2.431    1.00000
 2.432    1.00000
 2.433    1.00000
 2.434    0.00000
 2.434    4.00000
 2.435    1.00000
 2.436    0.00000
 2.437    2.00000
 2.438    3.00000
 2.438    3.00000
 2.439    1.00000
 2.440    2.00000
 2.441    0.00000
 2.442    1.00000
 2.443    0.00000
 2.443    0.00000
 2.444    1.00000
 2.445    1.00000
 2.446    2.00000
 2.447    0.00000
 2.447    1.00000
 2.448    0.00000
 2.449    1.00000
 2.450    3.00000
 2.451    3.00000
 2.452    0.00000
 2.452    1.00000
 2.453    2.00000
 2.454    2.00000
 2.455    0.00000
 2.456    1.00000
 2.456    1.00000
 2.457    0.00000
 2.458    0.00000
 2.459    3.00000
 2.460    2.00000
 2.460    1.00000
 2.461    4.00000
 2.462    3.00000
 2.463    0.00000
 2.464    2.00000
 2.465    1.00000
 2.465    5.00000
 2.466    2.00000
 2.467    0.00000
 2.468    0.00000
 2.469    2.00000
 2.469    0.00000
 2.470    0.00000
 2.471    2.00000
 2.472    2.00000
 2.473    2.00000
 2.474    0.00000
 2.474    2.00000
 2.475    0.00000
 2.476    0.00000
 2.477    1.00000
 2.478    2.00000
 2.478    1.00000
 2.479    0.00000
 2.480    1.00000
 2.481    0.00000
 2.482    1.00000
 2.482    1.00000
 2.483    0.00000
 2.484    0.00000
 2.485    2.00000
 2.486    1.00000
 2.487    2.00000
 2.487    3.00000
 2.488    0.00000
 2.489    1.00000
 2.490    3.00000
 2.491    2.00000
 2.491    1.00000
 2.492    3.00000
 2.493    2.00000
 2.494    0.00000
 2.495    1.00000
 2.496    0.00000
 2.496    2.00000
 2.497    0.00000
 2.498    2.00000
 2.499    1.00000
 2.500    0.00000
 2.500    4.00000
 2.501    1.00000
 2.502    1.00000
 2.503    2.00000
 2.504    2.00000
 2.504    1.00000
 2.505    0.00000
 2.506    2.00000
 2.507    1.00000
 2.508    2.00000
 2.509    1.00000
 2.509    1.00000
 2.510    2.00000
 2.511    2.00000
 2.512    1.00000
 2.513    2.00000
 2.513    1.00000
 2.514    0.00000
 2.515    0.00000
 2.516    0.00000
 2.517    4.00000
 2.518    0.00000
 2.518    1.00000
 2.519    0.00000
 2.520    2.00000
 2.521    1.00000
 2.522    3.00000
 2.522    3.00000
 2.523    0.00000
 2.524    0.00000
 2.525    1.00000
 2.526    6.00000
 2.526    1.00000
 2.527    3.00000
 2.528    2.00000
 2.529    1.00000
 2.530    1.00000
 2.531    1.00000
 2.531    1.00000
 2.532    1.00000
 2.533    1.00000
 2.534    1.00000
 2.535    0.00000
 2.535    4.00000
 2.536    2.00000
 2.537    2.00000
 2.538    3.00000
 2.539    1.00000
 2.540    3.00000
 2.540    2.00000
 2.541    2.00000
 2.542    1.00000
 2.543    3.00000
 2.544    3.00000
 2.544    5.00000
 2.545    3.00000
 2.546    2.00000
 2.547    4.00000
 2.548    4.00000
 2.548    3.00000
 2.549    9.00000
 2.550    6.00000
 2.551    6.00000
 2.552    5.00000
 2.553    8.00000
 2.553    8.00000
 2.554    10.00000
 2.555    7.00000
 2.556    3.00000
 2.557    11.00000
 2.557    5.00000
 2.558    5.00000
 2.559    6.00000
 2.560    8.00000
 2.561    10.00000
 2.562    8.00000
 2.562    7.00000
 2.563    7.00000
 2.564    5.00000
 2.565    10.00000
 2.566    8.00000
 2.566    5.00000
 2.567    10.00000
 2.568    9.00000
 2.569    10.00000
 2.570    10.00000
 2.570    11.00000
 2.571    9.00000
 2.572    8.00000
 2.573    12.00000
 2.574    9.00000
 2.575    4.00000
 2.575    14.00000
 2.576    13.00000
 2.577    9.00000
 2.578    5.00000
 2.579    10.00000
 2.579    14.00000
 2.580    11.00000
 2.581    10.00000
 2.582    12.00000
 2.583    10.00000
 2.584    9.00000
 2.584    10.00000
 2.585    5.00000
 2.586    6.00000
 2.587    8.00000
 2.588    10.00000
 2.588    10.00000
 2.589    9.00000
 2.590    11.00000
 2.591    7.00000
 2.592    10.00000
 2.592    10.00000
 2.593    9.00000
 2.594    12.00000
 2.595    14.00000
 2.596    9.00000
 2.597    12.00000
 2.597    10.00000
 2.598    6.00000
 2.599    7.00000
 2.600    13.00000
 2.601    5.00000
 2.601    8.00000
 2.602    7.00000
 2.603    9.00000
 2.604    11.00000
 2.605    5.00000
 2.606    6.00000
 2.606    2.00000
 2.607    8.00000
 2.608    11.00000
 2.609    11.00000
 2.610    3.00000
 2.610    6.00000
 2.611    4.00000
 2.612    9.00000
 2.613    4.00000
 2.614    4.00000
 2.614    12.00000
 2.615    10.00000
 2.616    7.00000
 2.617    9.00000
 2.618    6.00000
 2.619    2.00000
 2.619    6.00000
 2.620    4.00000
 2.621    8.00000
 2.622    5.00000
 2.623    9.00000
 2.623    7.00000
 2.624    1.00000
 2.625    7.00000
 2.626    5.00000
 2.627    2.00000
 2.628    6.00000
 2.628    4.00000
 2.629    5.00000
 2.630    5.00000
 2.631    7.00000
 2.632    2.00000
 2.632    4.00000
 2.633    2.00000
 2.634    8.00000
 2.635    7.00000
 2.636    6.00000
 2.636    5.00000
 2.637    7.00000
 2.638    1.00000
 2.639    3.00000
 2.640    3.00000
 2.641    2.00000
 2.641    4.00000
 2.642    6.00000
 2.643    3.00000
 2.644    7.00000
 2.645    5.00000
 2.645    1.00000
 2.646    3.00000
 2.647    6.00000
 2.648    2.00000
 2.649    2.00000
 2.650    5.00000
 2.650    3.00000
 2.651    2.00000
 2.652    3.00000
 2.653    6.00000
 2.654    6.00000
 2.654    7.00000
 2.655    8.00000
 2.656    5.00000
 2.657    2.00000
 2.658    5.00000
 2.658    5.00000
 2.659    4.00000
 2.660    5.00000
 2.661    3.00000
 2.662    4.00000
 2.663    6.00000
 2.663    6.00000
 2.664    5.00000
 2.665    6.00000
 2.666    4.00000
 2.667    5.00000
 2.667    9.00000
 2.668    2.00000
 2.669    8.00000
 2.670    5.00000
 2.671    14.00000
 2.672    1.00000
 2.672    6.00000
 2.673    8.00000
 2.674    4.00000
 2.675    10.00000
 2.676    12.00000
 2.676    9.00000
 2.677    9.00000
 2.678    12.00000
 2.679    5.00000
 2.680    11.00000
 2.680    11.00000
 2.681    8.00000
 2.682    10.00000
 2.683    8.00000
 2.684    4.00000
 2.685    8.00000
 2.685    8.00000
 2.686    8.00000
 2.687    5.00000
 2.688    9.00000
 2.689    7.00000
 2.689    13.00000
 2.690    6.00000
 2.691    3.00000
 2.692    9.00000
 2.693    5.00000
 2.693    11.00000
 2.694    5.00000
 2.695    4.00000
 2.696    9.00000
 2.697    8.00000
 2.698    8.00000
 2.698    4.00000
 2.699    9.00000
 2.700    8.00000
 2.701    7.00000
 2.702    12.00000
 2.702    7.00000
 2.703    7.00000
 2.704    5.00000
 2.705    9.00000
 2.706    10.00000
 2.707    6.00000
 2.707    3.00000
 2.708    6.00000
 2.709    6.00000
 2.710    6.00000
 2.711    4.00000
 2.711    2.00000
 2.712    9.00000
 2.713    5.00000
 2.714    7.00000
 2.715    5.00000
 2.715    6.00000
 2.716    7.00000
 2.717    4.00000
 2.718    3.00000
 2.719    3.00000
 2.720    2.00000
 2.720    3.00000
 2.721    4.00000
 2.722    5.00000
 2.723    7.00000
 2.724    3.00000
 2.724    5.00000
 2.725    2.00000
 2.726    8.00000
 2.727    4.00000
 2.728    2.00000
 2.729    0.00000
 2.729    7.00000
 2.730    3.00000
 2.731    4.00000
 2.732    4.00000
 2.733    5.00000
 2.733    3.00000
 2.734    6.00000
 2.735    4.00000
 2.736    2.00000
 2.737    3.00000
 2.737    3.00000
 2.738    3.00000
 2.739    6.00000
 2.740    4.00000
 2.741    4.00000
 2.742    8.00000
 2.742    2.00000
 2.743    4.00000
 2.744    2.00000
 2.745    2.00000
 2.746    4.00000
 2.746    3.00000
 2.747    1.00000
 2.748    2.00000
 2.749    2.00000
 2.750    0.00000
 2.751    3.00000
 2.751    2.00000
 2.752    3.00000
 2.753    3.00000
 2.754    2.00000
 2.755    3.00000
 2.755    2.00000
 2.756    5.00000
 2.757    3.00000
 2.758    6.00000
 2.759    3.00000
 2.759    1.00000
 2.760    3.00000
 2.761    2.00000
 2.762    4.00000
 2.763    2.00000
 2.764    3.00000
 2.764    5.00000
 2.765    6.00000
 2.766    2.00000
 2.767    3.00000
 2.768    3.00000
 2.768    2.00000
 2.769    3.00000
 2.770    2.00000
 2.771    1.00000
 2.772    2.00000
 2.773    2.00000
 2.773    0.00000
 2.774    3.00000
 2.775    6.00000
 2.776    0.00000
 2.777    3.00000
 2.777    2.00000
 2.778    3.00000
 2.779    1.00000
 2.780    5.00000
 2.781    5.00000
 2.781    3.00000
 2.782    2.00000
 2.783    1.00000
 2.784    1.00000
 2.785    4.00000
 2.786    1.00000
 2.786    2.00000
 2.787    3.00000
 2.788    1.00000
 2.789    1.00000
 2.790    1.00000
 2.790    4.00000
 2.791    3.00000
 2.792    2.00000
 2.793    1.00000
 2.794    1.00000
 2.795    2.00000
 2.795    3.00000
 2.796    3.00000
 2.797    3.00000
 2.798    1.00000
 2.799    3.00000
 2.799    4.00000
 2.800    2.00000
 2.801    0.00000
 2.802    2.00000
 2.803    1.00000
 2.803    2.00000
 2.804    4.00000
 2.805    3.00000
 2.806    3.00000
 2.807    1.00000
 2.808    3.00000
 2.808    2.00000
 2.809    0.00000
 2.810    1.00000
 2.811    6.00000
 2.812    2.00000
 2.812    2.00000
 2.813    2.00000
 2.814    4.00000
 2.815    2.00000
 2.816    0.00000
 2.817    2.00000
 2.817    2.00000
 2.818    0.00000
 2.819    3.00000
 2.820    0.00000
 2.821    1.00000
 2.821    2.00000
 2.822    8.00000
 2.823    0.00000
 2.824    6.00000
 2.825    3.00000
 2.825    1.00000
 2.826    2.00000
 2.827    1.00000
 2.828    4.00000
 2.829    0.00000
 2.830    1.00000
 2.830    3.00000
 2.831    3.00000
 2.832    2.00000
 2.833    2.00000
 2.834    0.00000
 2.834    4.00000
 2.835    0.00000
 2.836    1.00000
 2.837    0.00000
 2.838    0.00000
 2.839    1.00000
 2.839    2.00000
 2.840    2.00000
 2.841    1.00000
 2.842    1.00000
 2.843    4.00000
 2.843    2.00000
 2.844    1.00000
 2.845    8.00000
 2.846    2.00000
 2.847    2.00000
 2.847    0.00000
 2.848    0.00000
 2.849    1.00000
 2.850    2.00000
 2.851    0.00000
 2.852    2.00000
 2.852    1.00000
 2.853    3.00000
 2.854    0.00000
 2.855    2.00000
 2.856    4.00000
 2.856    2.00000
 2.857    1.00000
 2.858    4.00000
 2.859    1.00000
 2.860    1.00000
 2.861    2.00000
 2.861    0.00000
 2.862    2.00000
 2.863    0.00000
 2.864    5.00000
 2.865    1.00000
 2.865    2.00000
 2.866    5.00000
 2.867    2.00000
 2.868    1.00000
 2.869    2.00000
 2.869    0.00000
 2.870    4.00000
 2.871    3.00000
 2.872    0.00000
 2.873    1.00000
 2.874    1.00000
 2.874    0.00000
 2.875    1.00000
 2.876    5.00000
 2.877    4.00000
 2.878    2.00000
 2.878    2.00000
 2.879    1.00000
 2.880    2.00000
 2.881    3.00000
 2.882    0.00000
 2.883    2.00000
 2.883    1.00000
 2.884    2.00000
 2.885    4.00000
 2.886    1.00000
 2.887    0.00000
 2.887    4.00000
 2.888    2.00000
 2.889    0.00000
 2.890    2.00000
 2.891    1.00000
 2.891    0.00000
 2.892    5.00000
 2.893    1.00000
 2.894    2.00000
 2.895    2.00000
 2.896    1.00000
 2.896    2.00000
 2.897    2.00000
 2.898    3.00000
 2.899    1.00000
 2.900    0.00000
 2.900    1.00000
 2.901    5.00000
 2.902    1.00000
 2.903    0.00000
 2.904    1.00000
 2.905    3.00000
 2.905    2.00000
 2.906    2.00000
 2.907    2.00000
 2.908    2.00000
 2.909    1.00000
 2.909    1.00000
 2.910    3.00000
 2.911    2.00000
 2.912    0.00000
 2.913    0.00000
 2.913    2.00000
 2.914    1.00000
 2.915    0.00000
 2.916    2.00000
 2.917    3.00000
 2.918    2.00000
 2.918    0.00000
 2.919    1.00000
 2.920    1.00000
 2.921    2.00000
 2.922    0.00000
 2.922    0.00000
 2.923    1.00000
 2.924    2.00000
 2.925    0.00000
 2.926    0.00000
 2.927    3.00000
 2.927    1.00000
 2.928    2.00000
 2.929    2.00000
 2.930    2.00000
 2.931    2.00000
 2.931    1.00000
 2.932    2.00000
 2.933    0.00000
 2.934    1.00000
 2.935    2.00000
 2.935    1.00000
 2.936    1.00000
 2.937    2.00000
 2.938    0.00000
 2.939    1.00000
 2.940    0.00000
 2.940    1.00000
 2.941    2.00000
 2.942    1.00000
 2.943    0.00000
 2.944    2.00000
 2.944    1.00000
 2.945    0.00000
 2.946    1.00000
 2.947    2.00000
 2.948    1.00000
 2.949    1.00000
 2.949    3.00000
 2.950    2.00000
 2.951    2.00000
 2.952    1.00000
 2.953    3.00000
 2.953    4.00000
 2.954    0.00000
 2.955    3.00000
 2.956    2.00000
 2.957    1.00000
 2.957    1.00000
 2.958    3.00000
 2.959    3.00000
 2.960    3.00000
 2.961    2.00000
 2.962    1.00000
 2.962    0.00000
 2.963    2.00000
 2.964    0.00000
 2.965    4.00000
 2.966    1.00000
 2.966    2.00000
 2.967    0.00000
 2.968    2.00000
 2.969    0.00000
 2.970    2.00000
 2.971    4.00000
 2.971    3.00000
 2.972    0.00000
 2.973    1.00000
 2.974    4.00000
 2.975    1.00000
 2.975    3.00000
 2.976    1.00000
 2.977    1.00000
 2.978    2.00000
 2.979    2.00000
 2.979    1.00000
 2.980    0.00000
 2.981    0.00000
 2.982    4.00000
 2.983    4.00000
 2.984    2.00000
 2.984    2.00000
 2.985    4.00000
 2.986    1.00000
 2.987    4.00000
 2.988    4.00000
 2.988    0.00000
 2.989    2.00000
 2.990    1.00000
 2.991    2.00000
 2.992    2.00000
 2.993    0.00000
 2.993    0.00000
 2.994    3.00000
 2.995    2.00000
 2.996    0.00000
 2.997    1.00000
 2.997    1.00000
 2.998    0.00000
 2.999    2.00000
 3.000    1.00000
 3.001    0.00000
 3.001    2.00000
 3.002    3.00000
 3.003    1.00000
 3.004    1.00000
 3.005    0.00000
 3.006    1.00000
 3.006    0.00000
 3.007    1.00000
 3.008    2.00000
 3.009    0.00000
 3.010    0.00000
 3.010    1.00000
 3.011    3.00000
 3.012    1.00000
 3.013    2.00000
 3.014    2.00000
 3.015    2.00000
 3.015    1.00000
 3.016    2.00000
 3.017    1.00000
 3.018    0.00000
 3.019    1.00000
 3.019    0.00000
 3.020    5.00000
 3.021    1.00000
 3.022    0.00000
 3.023    1.00000
 3.023    4.00000
 3.024    0.00000
 3.025    0.00000
 3.026    0.00000
 3.027    0.00000
 3.028    1.00000
 3.028    4.00000
 3.029    0.00000
 3.030    0.00000
 3.031    2.00000
 3.032    0.00000
 3.032    1.00000
 3.033    3.00000
 3.034    1.00000
 3.035    2.00000
 3.036    1.00000
 3.037    1.00000
 3.037    2.00000
 3.038    0.00000
 3.039    0.00000
 3.040    0.00000
 3.041    2.00000
 3.041    1.00000
 3.042    0.00000
 3.043    0.00000
 3.044    1.00000
 3.045    0.00000
 3.045    1.00000
 3.046    1.00000
 3.047    0.00000
 3.048    0.00000
 3.049    2.00000
 3.050    0.00000
 3.050    0.00000
 3.051    1.00000
 3.052    0.00000
 3.053    0.00000
 3.054    2.00000
 3.054    3.00000
 3.055    0.00000
 3.056    1.00000
 3.057    3.00000
 3.058    1.00000
 3.058    2.00000
 3.059    2.00000
 3.060    3.00000
 3.061    2.00000
 3.062    0.00000
 3.063    2.00000
 3.063    2.00000
 3.064    1.00000
 3.065    3.00000
 3.066    0.00000
 3.067    1.00000
 3.067    2.00000
 3.068    3.00000
 3.069    1.00000
 3.070    1.00000
 3.071    0.00000
 3.072    0.00000
 3.072    1.00000
 3.073    0.00000
 3.074    3.00000
 3.075    4.00000
 3.076    3.00000
 3.076    0.00000
 3.077    0.00000
 3.078    0.00000
 3.079    1.00000
 3.080    1.00000
 3.080    0.00000
 3.081    1.00000
 3.082    1.00000
 3.083    4.00000
 3.084    2.00000
 3.085    2.00000
 3.085    2.00000
 3.086    2.00000
 3.087    2.00000
 3.088    1.00000
 3.089    2.00000
 3.089    0.00000
 3.090    0.00000
 3.091    2.00000
 3.092    2.00000
 3.093    2.00000
 3.094    0.00000
 3.094    0.00000
 3.095    0.00000
 3.096    1.00000
 3.097    3.00000
 3.098    1.00000
 3.098    1.00000
 3.099    4.00000
 3.100    3.00000
 3.101    3.00000
 3.102    2.00000
 3.102    1.00000
 3.103    3.00000
 3.104    2.00000
 3.105    2.00000
 3.106    0.00000
 3.107    0.00000
 3.107    0.00000
 3.108    1.00000
 3.109    1.00000
 3.110    0.00000
 3.111    1.00000
 3.111    1.00000
 3.112    2.00000
 3.113    1.00000
 3.114    1.00000
 3.115    2.00000
 3.116    4.00000
 3.116    2.00000
 3.117    1.00000
 3.118    1.00000
 3.119    3.00000
 3.120    0.00000
 3.120    0.00000
 3.121    0.00000
 3.122    0.00000
 3.123    2.00000
 3.124    2.00000
 3.124    2.00000
 3.125    4.00000
 3.126    0.00000
 3.127    2.00000
 3.128    1.00000
 3.129    1.00000
 3.129    0.00000
 3.130    3.00000
 3.131    4.00000
 3.132    4.00000
 3.133    1.00000
 3.133    0.00000
 3.134    1.00000
 3.135    2.00000
 3.136    0.00000
 3.137    1.00000
 3.138    1.00000
 3.138    2.00000
 3.139    1.00000
 3.140    1.00000
 3.141    0.00000
 3.142    1.00000
 3.142    1.00000
 3.143    1.00000
 3.144    4.00000
 3.145    1.00000
 3.146    0.00000
 3.146    0.00000
 3.147    2.00000
 3.148    0.00000
 3.149    2.00000
 3.150    1.00000
 3.151    3.00000
 3.151    3.00000
 3.152    0.00000
 3.153    0.00000
 3.154    1.00000
 3.155    0.00000
 3.155    1.00000
 3.156    2.00000
 3.157    2.00000
 3.158    0.00000
 3.159    2.00000
 3.160    0.00000
 3.160    0.00000
 3.161    1.00000
 3.162    3.00000
 3.163    2.00000
 3.164    0.00000
 3.164    1.00000
 3.165    2.00000
 3.166    1.00000
 3.167    0.00000
 3.168    0.00000
 3.168    0.00000
 3.169    2.00000
 3.170    1.00000
 3.171    1.00000
 3.172    2.00000
 3.173    2.00000
 3.173    4.00000
 3.174    1.00000
 3.175    0.00000
 3.176    0.00000
 3.177    2.00000
 3.177    0.00000
 3.178    3.00000
 3.179    2.00000
 3.180    1.00000
 3.181    0.00000
 3.182    3.00000
 3.182    1.00000
 3.183    1.00000
 3.184    0.00000
 3.185    4.00000
 3.186    0.00000
 3.186    2.00000
 3.187    0.00000
 3.188    2.00000
 3.189    1.00000
 3.190    0.00000
 3.190    2.00000
 3.191    3.00000
 3.192    2.00000
 3.193    0.00000
 3.194    0.00000
 3.195    2.00000
 3.195    1.00000
 3.196    1.00000
 3.197    2.00000
 3.198    2.00000
 3.199    1.00000
 3.199    0.00000
 3.200    2.00000
 3.201    2.00000
 3.202    1.00000
 3.203    1.00000
 3.204    0.00000
 3.204    1.00000
 3.205    3.00000
 3.206    2.00000
 3.207    1.00000
 3.208    1.00000
 3.208    0.00000
 3.209    1.00000
 3.210    1.00000
 3.211    1.00000
 3.212    1.00000
 3.212    2.00000
 3.213    1.00000
 3.214    3.00000
 3.215    0.00000
 3.216    2.00000
 3.217    0.00000
 3.217    0.00000
 3.218    3.00000
 3.219    1.00000
 3.220    1.00000
 3.221    1.00000
 3.221    1.00000
 3.222    0.00000
 3.223    1.00000
 3.224    1.00000
 3.225    0.00000
 3.226    1.00000
 3.226    1.00000
 3.227    1.00000
 3.228    1.00000
 3.229    1.00000
 3.230    1.00000
 3.230    0.00000
 3.231    1.00000
 3.232    1.00000
 3.233    2.00000
 3.234    2.00000
 3.234    1.00000
 3.235    1.00000
 3.236    1.00000
 3.237    3.00000
 3.238    1.00000
 3.239    3.00000
 3.239    1.00000
 3.240    2.00000
 3.241    2.00000
 3.242    2.00000
 3.243    1.00000
 3.243    1.00000
 3.244    4.00000
 3.245    1.00000
 3.246    0.00000
 3.247    0.00000
 3.248    0.00000
 3.248    3.00000
 3.249    2.00000
 3.250    1.00000
 3.251    3.00000
 3.252    4.00000
 3.252    0.00000
 3.253    0.00000
 3.254    0.00000
 3.255    1.00000
 3.256    1.00000
 3.256    2.00000
 3.257    0.00000
 3.258    2.00000
 3.259    2.00000
 3.260    0.00000
 3.261    2.00000
 3.261    2.00000
 3.262    1.00000
 3.263    1.00000
 3.264    0.00000
 3.265    4.00000
 3.265    0.00000
 3.266    2.00000
 3.267    2.00000
 3.268    1.00000
 3.269    0.00000
 3.270    1.00000
 3.270    0.00000
 3.271    3.00000
 3.272    1.00000
 3.273    0.00000
 3.274    0.00000
 3.274    0.00000
 3.275    1.00000
 3.276    3.00000
 3.277    2.00000
 3.278    0.00000
 3.278    1.00000
 3.279    2.00000
 3.280    0.00000
 3.281    1.00000
 3.282    0.00000
 3.283    3.00000
 3.283    2.00000
 3.284    2.00000
 3.285    3.00000
 3.286    2.00000
 3.287    1.00000
 3.287    2.00000
 3.288    1.00000
 3.289    1.00000
 3.290    2.00000
 3.291    0.00000
 3.292    1.00000
 3.292    3.00000
 3.293    0.00000
 3.294    0.00000
 3.295    2.00000
 3.296    3.00000
 3.296    2.00000
 3.297    0.00000
 3.298    1.00000
 3.299    1.00000
 3.300    2.00000
 3.300    1.00000
 3.301    1.00000
 3.302    2.00000
 3.303    4.00000
 3.304    3.00000
 3.305    1.00000
 3.305    2.00000
 3.306    2.00000
 3.307    1.00000
 3.308    0.00000
 3.309    0.00000
 3.309    0.00000
 3.310    2.00000
 3.311    1.00000
 3.312    0.00000
 3.313    1.00000
 3.314    2.00000
 3.314    3.00000
 3.315    0.00000
 3.316    1.00000
 3.317    2.00000
 3.318    2.00000
 3.318    3.00000
 3.319    3.00000
 3.320    1.00000
 3.321    3.00000
 3.322    0.00000
 3.322    0.00000
 3.323    1.00000
 3.324    1.00000
 3.325    2.00000
 3.326    2.00000
 3.327    1.00000
 3.327    0.00000
 3.328    2.00000
 3.329    1.00000
 3.330    1.00000
 3.331    1.00000
 3.331    0.00000
 3.332    0.00000
 3.333    4.00000
 3.334    0.00000
 3.335    2.00000
 3.336    1.00000
 3.336    0.00000
